----------------------------------------------------------------------
SPECTRUM: CWW_E_ext
FILTER:        SDSS z + CCD, [MT]  no atmosphere (Ref. F. Castander)
----------------------------------------------------------------------
      0.00000      0.00000
   0.00461578   0.00383225
   0.00925291   0.00772119
    0.0139114    0.0115110
    0.0185914    0.0154406
    0.0232930    0.0194604
    0.0280163    0.0236424
    0.0327615    0.0280511
    0.0375284    0.0325620
    0.0423174    0.0373201
    0.0471286    0.0420668
    0.0519619    0.0468968
    0.0568175    0.0516280
    0.0616956    0.0562097
    0.0665962    0.0606129
    0.0715193    0.0646447
    0.0764652    0.0684188
    0.0814340    0.0717300
    0.0864257    0.0746953
    0.0914403    0.0772439
    0.0964782    0.0794066
     0.101539    0.0812904
     0.106624    0.0828546
     0.111732    0.0843157
     0.116863    0.0856560
     0.122018    0.0870748
     0.127198    0.0886221
     0.132400    0.0903837
     0.137627    0.0924537
     0.142878    0.0947784
     0.148154    0.0974206
     0.153453     0.100206
     0.158777     0.103153
     0.164126     0.106112
     0.169499     0.109030
     0.174898     0.111872
     0.180321     0.114514
     0.185769     0.117088
     0.191242     0.119445
     0.196741     0.121745
     0.202264     0.123969
     0.207814     0.126145
     0.213389     0.128374
     0.218990     0.130556
     0.224616     0.132846
     0.230269     0.135146
     0.235947     0.137506
     0.241652     0.139927
     0.247383     0.142349
     0.253141     0.144875
     0.258925     0.147416
     0.264736     0.150085
     0.270574     0.152905
     0.276439     0.155885
     0.282331     0.159123
     0.288249     0.162543
     0.294196     0.166233
     0.300170     0.170110
     0.306171     0.174156
     0.312200     0.178354
     0.318257     0.182566
     0.324342     0.186795
     0.330454     0.190902
     0.336596     0.194875
     0.342765     0.198682
     0.348963     0.202280
     0.355189     0.205741
     0.361445     0.209055
     0.367729     0.212333
     0.374042     0.215624
     0.380384     0.219010
     0.386756     0.222602
     0.393157     0.226417
     0.399587     0.230525
     0.406048     0.234904
     0.412538     0.239550
     0.419057     0.244426
     0.425608     0.249463
     0.432188     0.254633
     0.438799     0.259857
     0.445440     0.265129
     0.452112     0.270404
     0.458814     0.275680
     0.465548     0.280956
     0.472312     0.286232
     0.479108     0.291523
     0.485936     0.296846
     0.492794     0.302245
     0.499685     0.307724
     0.506607     0.313313
     0.513561     0.318996
     0.520548     0.324792
     0.527566     0.330675
     0.534617     0.336640
     0.541700     0.342728
     0.548817     0.348928
     0.555966     0.355352
     0.563148     0.361994
     0.570363     0.368965
     0.577611     0.376362
     0.584893     0.384167
     0.592209     0.392460
     0.599558     0.401120
     0.606941     0.410158
     0.614359     0.419437
     0.621810     0.428879
     0.629296     0.438400
     0.636817     0.447861
     0.644372     0.457213
     0.651962     0.466329
     0.659587     0.475193
     0.667247     0.483743
     0.674943     0.491948
     0.682674     0.499846
     0.690441     0.507385
     0.698244     0.514621
     0.706082     0.521548
     0.713957     0.528199
     0.721869     0.534665
     0.729816     0.540931
     0.737801     0.547168
     0.745822     0.553374
     0.753881     0.559642
     0.761976     0.566030
     0.770109     0.572506
     0.778279     0.579197
     0.786488     0.586020
     0.794734     0.593068
     0.803018     0.600332
     0.811340     0.607826
     0.819701     0.615632
     0.828100     0.623706
     0.836538     0.632231
     0.845015     0.641179
     0.853532     0.650668
     0.862087     0.660769
     0.870682     0.671491
     0.879317     0.682973
     0.887991     0.695162
     0.896706     0.708205
     0.905461     0.722041
     0.914256     0.736725
     0.923092     0.752241
     0.931968     0.768507
     0.940886     0.785587
     0.949845     0.803328
     0.958845     0.821739
     0.967886     0.840722
     0.976970     0.860187
     0.986095     0.880094
     0.995262     0.900288
      1.00447     0.920758
      1.01372     0.941413
      1.02302     0.962234
      1.03236     0.983285
      1.04174      1.00458
      1.05116      1.02636
      1.06063      1.04873
      1.07014      1.07190
      1.07970      1.09618
      1.08930      1.12163
      1.09894      1.14854
      1.10863      1.17684
      1.11836      1.20661
      1.12814      1.23784
      1.13796      1.27018
      1.14783      1.30375
      1.15774      1.33802
      1.16770      1.37295
      1.17771      1.40814
      1.18776      1.44323
      1.19786      1.47819
      1.20800      1.51248
      1.21820      1.54625
      1.22844      1.57918
      1.23872      1.61133
      1.24905      1.64282
      1.25944      1.67348
      1.26986      1.70376
      1.28034      1.73348
      1.29087      1.76294
      1.30144      1.79216
      1.31206      1.82107
      1.32274      1.84985
      1.33346      1.87820
      1.34423      1.90622
      1.35505      1.93374
      1.36592      1.96067
      1.37684      1.98702
      1.38781      2.01264
      1.39883      2.03757
      1.40991      2.06177
      1.42103      2.08518
      1.43220      2.10790
      1.44343      2.12986
      1.45471      2.15109
      1.46604      2.17157
      1.47742      2.19127
      1.48886      2.21025
      1.50035      2.22838
      1.51189      2.24578
      1.52348      2.26243
      1.53513      2.27828
      1.54683      2.29353
      1.55859      2.30808
      1.57040      2.32220
      1.58226      2.33599
      1.59418      2.34964
      1.60615      2.36350
      1.61818      2.37764
      1.63027      2.39248
      1.64241      2.40809
      1.65461      2.42472
      1.66686      2.44245
      1.67917      2.46123
      1.69153      2.48115
      1.70396      2.50197
      1.71644      2.52371
      1.72898      2.54615
      1.74157      2.56925
      1.75423      2.59288
      1.76694      2.61695
      1.77971      2.64143
      1.79254      2.66629
      1.80543      2.69161
      1.81838      2.71736
      1.83139      2.74367
      1.84446      2.77053
      1.85759      2.79803
      1.87078      2.82624
      1.88403      2.85517
      1.89734      2.88496
      1.91072      2.91556
      1.92415      2.94708
      1.93765      2.97944
      1.95121      3.01270
      1.96483      3.04683
      1.97852      3.08176
      1.99226      3.11757
      2.00608      3.15412
      2.01995      3.19149
      2.03389      3.22958
      2.04789      3.26842
      2.06196      3.30804
      2.07610      3.34837
      2.09030      3.38949
      2.10456      3.43132
      2.11889      3.47393
      2.13329      3.51730
      2.14775      3.56142
      2.16228      3.60631
      2.17687      3.65187
      2.19154      3.69810
      2.20627      3.74493
      2.22107      3.79228
      2.23594      3.84013
      2.25087      3.88835
      2.26588      3.93691
      2.28095      3.98575
      2.29610      4.03477
      2.31131      4.08398
      2.32660      4.13327
      2.34195      4.18264
      2.35738      4.23200
      2.37287      4.28122
      2.38844      4.33027
      2.40408      4.37891
      2.41979      4.42712
      2.43558      4.47464
      2.45144      4.52131
      2.46737      4.56696
      2.48337      4.61130
      2.49945      4.65425
      2.51560      4.69552
      2.53183      4.73498
      2.54813      4.77248
      2.56451      4.80785
      2.58096      4.84103
      2.59749      4.87182
      2.61410      4.90030
      2.63078      4.92635
      2.64754      4.94998
      2.66438      4.97124
      2.68129      4.99010
      2.69828      5.00673
      2.71535      5.02111
      2.73250      5.03346
      2.74973      5.04389
      2.76704      5.05255
      2.78443      5.05965
      2.80189      5.06532
      2.81944      5.06981
      2.83707      5.07328
      2.85478      5.07592
      2.87258      5.07793
      2.89045      5.07942
      2.90841      5.08059
      2.92645      5.08154
      2.94457      5.08242
      2.96278      5.08333
      2.98107      5.08436
      2.99945      5.08563
      3.01791      5.08718
      3.03645      5.08910
      3.05509      5.09144
      3.07380      5.09423
      3.09261      5.09755
      3.11150      5.10138
      3.13048      5.10577
      3.14954      5.11073
      3.16869      5.11629
      3.18794      5.12246
      3.20727      5.12924
      3.22669      5.13665
      3.24620      5.14468
      3.26580      5.15334
      3.28549      5.16260
      3.30527      5.17245
      3.32514      5.18287
      3.34510      5.19384
      3.36516      5.20530
      3.38531      5.21722
      3.40555      5.22955
      3.42588      5.24222
      3.44631      5.25521
      3.46684      5.26844
      3.48745      5.28189
      3.50817      5.29550
      3.52898      5.30923
      3.54988      5.32305
      3.57088      5.33691
      3.59198      5.35078
      3.61318      5.36460
      3.63447      5.37834
      3.65586      5.39195
      3.67735      5.40540
      3.69894      5.41865
      3.72063      5.43166
      3.74242      5.44441
      3.76431      5.45687
      3.78630      5.46902
      3.80839      5.48086
      3.83059      5.49236
      3.85288      5.50351
      3.87529      5.51430
      3.89779      5.52472
      3.92039      5.53477
      3.94311      5.54443
      3.96592      5.55371
      3.98884      5.56260
      4.01187      5.57109
      4.03501      5.57920
      4.05825      5.58693
      4.08159      5.59430
      4.10505      5.60131
      4.12861      5.60796
      4.15229      5.61429
      4.17607      5.62029
      4.19996      5.62600
      4.22396      5.63142
      4.24808      5.63658
      4.27230      5.64149
      4.29663      5.64616
      4.32108      5.65061
      4.34564      5.65487
      4.37032      5.65895
      4.39511      5.66285
      4.42001      5.66660
      4.44503      5.67021
      4.47016      5.67367
      4.49541      5.67699
      4.52077      5.68016
      4.54626      5.68317
      4.57186      5.68601
      4.59758      5.68864
      4.62341      5.69104
      4.64937      5.69315
      4.67545      5.69496
      4.70164      5.69649
      4.72796      5.69773
      4.75440      5.69881
      4.78096      5.69974
      4.80764      5.70067
      4.83445      5.70167
      4.86138      5.70275
      4.88844      5.70398
      4.91562      5.70494
      4.94292      5.70583
      4.97035      5.70613
      4.99791      5.70598
      5.02560      5.70517
      5.05341      5.70328
      5.08135      5.70090
      5.10942      5.69737
      5.13762      5.69350
      5.16595      5.68881
      5.19441      5.68356
      5.22300      5.67816
      5.25173      5.67214
      5.28058      5.66634
      5.30957      5.66016
      5.33870      5.65416
      5.36796      5.64806
      5.39735      5.64175
      5.42688      5.63567
      5.45654      5.62929
      5.48634      5.62319
      5.51628      5.61689
      5.54636      5.61074
      5.57658      5.60483
      5.60693      5.59907
      5.63743      5.59394
      5.66807      5.58915
      5.69885      5.58530
      5.72977      5.58235
      5.76083      5.58043
      5.79204      5.57966
      5.82339      5.57982
      5.85488      5.58075
      5.88652      5.58228
      5.91831      5.58403
      5.95024      5.58595
      5.98232      5.58775
      6.01455      5.58936
      6.04693      5.59045
      6.07946      5.59079
      6.11213      5.59056
      6.14496      5.58941
      6.17794      5.58790
      6.21107      5.58534
      6.24436      5.58262
      6.27780      5.57929
      6.31139      5.57581
      6.34514      5.57221
      6.37904      5.56812
      6.41310      5.56445
      6.44732      5.56008
      6.48170      5.55598
      6.51623      5.55146
      6.55092      5.54697
      6.58578      5.54250
      6.62079      5.53757
      6.65597      5.53307
      6.69130      5.52786
      6.72681      5.52289
      6.76247      5.51748
      6.79830      5.51190
      6.83430      5.50637
      6.87046      5.50049
      6.90679      5.49531
      6.94328      5.48995
      6.97995      5.48545
      7.01678      5.48149
      7.05378      5.47812
      7.09096      5.47572
      7.12831      5.47348
      7.16582      5.47224
      7.20352      5.47114
      7.24138      5.47088
      7.27942      5.47118
      7.31764      5.47216
      7.35603      5.47413
      7.39460      5.47661
      7.43335      5.48001
      7.47227      5.48363
      7.51138      5.48741
      7.55067      5.49140
      7.59014      5.49496
      7.62979      5.49872
      7.66962      5.50213
      7.70964      5.50565
      7.74984      5.50984
      7.79023      5.51436
      7.83080      5.52051
      7.87156      5.52760
      7.91251      5.53671
      7.95365      5.54769
      7.99498      5.56047
      8.03649      5.57572
      8.07821      5.59216
      8.12011      5.61095
      8.16220      5.63089
      8.20450      5.65209
      8.24698      5.67449
      8.28966      5.69717
      8.33254      5.72087
      8.37562      5.74437
      8.41890      5.76836
      8.46237      5.79230
      8.50605      5.81596
      8.54993      5.83982
      8.59401      5.86293
      8.63829      5.88619
      8.68278      5.90882
      8.72747      5.93111
      8.77237      5.95304
      8.81748      5.97426
      8.86279      5.99525
      8.90832      6.01517
      8.95405      6.03466
      9.00000      6.05320
      9.04616      6.07080
      9.09253      6.08753
      9.13911      6.10302
      9.18591      6.11753
      9.23293      6.13085
      9.28016      6.14309
      9.32762      6.15426
      9.37529      6.16424
      9.42317      6.17317
      9.47128      6.18105
      9.51962      6.18789
      9.56818      6.19376
      9.61696      6.19858
      9.66596      6.20246
      9.71519      6.20541
      9.76465      6.20739
      9.81434      6.20852
      9.86426      6.20864
      9.91440      6.20790
      9.96478      6.20627
      10.0154      6.20389
      10.0662      6.20083
      10.1173      6.19714
      10.1686      6.19301
      10.2202      6.18846
      10.2720      6.18366
      10.3240      6.17865
      10.3763      6.17354
      10.4288      6.16842
      10.4815      6.16332
      10.5345      6.15835
      10.5878      6.15353
      10.6413      6.14892
      10.6950      6.14448
      10.7490      6.14020
      10.8032      6.13607
      10.8577      6.13201
      10.9124      6.12807
      10.9674      6.12419
      11.0226      6.12033
      11.0781      6.11652
      11.1339      6.11263
      11.1899      6.10879
      11.2462      6.10489
      11.3027      6.10100
      11.3595      6.09717
      11.4165      6.09330
      11.4738      6.08960
      11.5314      6.08589
      11.5893      6.08230
      11.6474      6.07880
      11.7057      6.07530
      11.7644      6.07195
      11.8233      6.06852
      11.8825      6.06522
      11.9420      6.06192
      12.0017      6.05868
      12.0617      6.05559
      12.1220      6.05247
      12.1826      6.04956
      12.2434      6.04666
      12.3045      6.04396
      12.3660      6.04142
      12.4277      6.03900
      12.4896      6.03685
      12.5519      6.03475
      12.6144      6.03291
      12.6773      6.03108
      12.7404      6.02935
      12.8038      6.02766
      12.8676      6.02583
      12.9316      6.02402
      12.9959      6.02194
      13.0605      6.01983
      13.1254      6.01753
      13.1906      6.01510
      13.2561      6.01262
      13.3219      6.00998
      13.3880      6.00740
      13.4544      6.00475
      13.5211      6.00221
      13.5881      5.99978
      13.6555      5.99747
      13.7231      5.99543
      13.7911      5.99357
      13.8594      5.99206
      13.9279      5.99080
      13.9968      5.98985
      14.0661      5.98918
      14.1356      5.98867
      14.2055      5.98838
      14.2757      5.98813
      14.3462      5.98793
      14.4170      5.98768
      14.4882      5.98731
      14.5597      5.98680
      14.6315      5.98608
      14.7036      5.98519
      14.7761      5.98409
      14.8489      5.98280
      14.9221      5.98140
      14.9956      5.97989
      15.0694      5.97838
      15.1436      5.97692
      15.2181      5.97557
      15.2930      5.97442
      15.3682      5.97343
      15.4437      5.97268
      15.5196      5.97214
      15.5959      5.97183
      15.6725      5.97177
      15.7494      5.97186
      15.8267      5.97217
      15.9044      5.97257
      15.9824      5.97313
      16.0608      5.97374
      16.1396      5.97442
      16.2187      5.97519
      16.2982      5.97596
      16.3780      5.97682
      16.4582      5.97767
      16.5388      5.97862
      16.6198      5.97961
      16.7011      5.98065
      16.7828      5.98178
      16.8649      5.98289
      16.9473      5.98408
      17.0302      5.98524
      17.1134      5.98640
      17.1970      5.98755
      17.2810      5.98864
      17.3654      5.98973
      17.4502      5.99073
      17.5353      5.99175
      17.6209      5.99274
      17.7068      5.99377
      17.7932      5.99486
      17.8799      5.99599
      17.9671      5.99725
      18.0546      5.99857
      18.1426      6.00003
      18.2309      6.00159
      18.3197      6.00325
      18.4089      6.00500
      18.4984      6.00677
      18.5884      6.00859
      18.6789      6.01038
      18.7697      6.01217
      18.8609      6.01391
      18.9526      6.01560
      19.0447      6.01726
      19.1372      6.01888
      19.2302      6.02050
      19.3236      6.02212
      19.4174      6.02380
      19.5116      6.02556
      19.6063      6.02746
      19.7014      6.02952
      19.7970      6.03178
      19.8930      6.03429
      19.9894      6.03706
      20.0863      6.04011
      20.1836      6.04344
      20.2814      6.04706
      20.3796      6.05095
      20.4783      6.05508
      20.5774      6.05942
      20.6770      6.06392
      20.7771      6.06855
      20.8776      6.07324
      20.9786      6.07799
      21.0800      6.08277
      21.1820      6.08755
      21.2844      6.09237
      21.3872      6.09719
      21.4905      6.10207
      21.5944      6.10701
      21.6986      6.11205
      21.8034      6.11723
      21.9087      6.12256
      22.0144      6.12809
      22.1206      6.13380
      22.2274      6.13973
      22.3346      6.14588
      22.4423      6.15222
      22.5505      6.15876
      22.6592      6.16546
      22.7684      6.17234
      22.8781      6.17933
      22.9883      6.18643
      23.0991      6.19361
      23.2103      6.20083
      23.3220      6.20812
      23.4343      6.21540
      23.5471      6.22270
      23.6604      6.22998
      23.7742      6.23725
      23.8886      6.24450
      24.0035      6.25170
      24.1189      6.25889
      24.2348      6.26605
      24.3513      6.27318
      24.4683      6.28029
      24.5859      6.28738
      24.7040      6.29447
      24.8226      6.30153
      24.9418      6.30860
      25.0615      6.31565
      25.1818      6.32271
      25.3027      6.32977
      25.4241      6.33683
      25.5461      6.34389
      25.6686      6.35095
      25.7917      6.35802
      25.9153      6.36510
      26.0396      6.37219
      26.1644      6.37929
      26.2898      6.38640
      26.4157      6.39353
      26.5423      6.40066
      26.6694      6.40780
      26.7971      6.41493
      26.9254      6.42206
      27.0543      6.42920
      27.1838      6.43633
      27.3139      6.44347
      27.4446      6.45063
      27.5759      6.45782
      27.7078      6.46507
      27.8403      6.47240
      27.9734      6.47982
