----------------------------------------------------------------------
SPECTRUM: CWW_E_ext
FILTER:        SDSS i + CCD, [MT]  no atmosphere (Ref. F. Castander)
----------------------------------------------------------------------
      0.00000      0.00000
   0.00461578   0.00175404
   0.00925291   0.00364470
    0.0139114   0.00577582
    0.0185914   0.00816305
    0.0232930    0.0107528
    0.0280163    0.0134480
    0.0327615    0.0161414
    0.0375284    0.0187504
    0.0423174    0.0212375
    0.0471286    0.0235926
    0.0519619    0.0258188
    0.0568175    0.0279232
    0.0616956    0.0299466
    0.0665962    0.0319690
    0.0715193    0.0340912
    0.0764652    0.0364204
    0.0814340    0.0390342
    0.0864257    0.0419676
    0.0914403    0.0452059
    0.0964782    0.0487015
     0.101539    0.0523848
     0.106624    0.0561840
     0.111732    0.0600453
     0.116863    0.0639421
     0.122018    0.0678646
     0.127198    0.0718038
     0.132400    0.0757467
     0.137627    0.0796758
     0.142878    0.0835848
     0.148154    0.0874911
     0.153453    0.0914168
     0.158777    0.0953729
     0.164126    0.0993375
     0.169499     0.103260
     0.174898     0.107096
     0.180321     0.110868
     0.185769     0.114683
     0.191242     0.118683
     0.196741     0.122963
     0.202264     0.127519
     0.207814     0.132282
     0.213389     0.137169
     0.218990     0.142119
     0.224616     0.147103
     0.230269     0.152113
     0.235947     0.157155
     0.241652     0.162244
     0.247383     0.167399
     0.253141     0.172636
     0.258925     0.177972
     0.264736     0.183419
     0.270574     0.188986
     0.276439     0.194686
     0.282331     0.200520
     0.288249     0.206467
     0.294196     0.212509
     0.300170     0.218641
     0.306171     0.224896
     0.312200     0.231335
     0.318257     0.238021
     0.324342     0.244992
     0.330454     0.252263
     0.336596     0.259804
     0.342765     0.267567
     0.348963     0.275507
     0.355189     0.283592
     0.361445     0.291804
     0.367729     0.300135
     0.374042     0.308560
     0.380384     0.317035
     0.386756     0.325500
     0.393157     0.333892
     0.399587     0.342155
     0.406048     0.350232
     0.412538     0.358070
     0.419057     0.365603
     0.425608     0.372770
     0.432188     0.379530
     0.438799     0.385899
     0.445440     0.391988
     0.452112     0.397974
     0.458814     0.404053
     0.465548     0.410374
     0.472312     0.417016
     0.479108     0.423996
     0.485936     0.431279
     0.492794     0.438812
     0.499685     0.446553
     0.506607     0.454481
     0.513561     0.462604
     0.520548     0.470961
     0.527566     0.479582
     0.534617     0.488488
     0.541700     0.497702
     0.548817     0.507257
     0.555966     0.517212
     0.563148     0.527636
     0.570363     0.538624
     0.577611     0.550280
     0.584893     0.562670
     0.592209     0.575769
     0.599558     0.589454
     0.606941     0.603554
     0.614359     0.617900
     0.621810     0.632339
     0.629296     0.646756
     0.636817     0.661109
     0.644372     0.675479
     0.651962     0.690059
     0.659587     0.705029
     0.667247     0.720471
     0.674943     0.736331
     0.682674     0.752493
     0.690441     0.768904
     0.698244     0.785628
     0.706082     0.802848
     0.713957     0.820799
     0.721869     0.839669
     0.729816     0.859592
     0.737801     0.880678
     0.745822     0.903079
     0.753881     0.926942
     0.761976     0.952365
     0.770109     0.979319
     0.778279      1.00763
     0.786488      1.03704
     0.794734      1.06722
     0.803018      1.09788
     0.811340      1.12881
     0.819701      1.15991
     0.828100      1.19111
     0.836538      1.22241
     0.845015      1.25372
     0.853532      1.28493
     0.862087      1.31594
     0.870682      1.34668
     0.879317      1.37718
     0.887991      1.40751
     0.896706      1.43773
     0.905461      1.46787
     0.914256      1.49788
     0.923092      1.52772
     0.931968      1.55738
     0.940886      1.58681
     0.949845      1.61596
     0.958845      1.64470
     0.967886      1.67286
     0.976970      1.70033
     0.986095      1.72713
     0.995262      1.75349
      1.00447      1.77960
      1.01372      1.80563
      1.02302      1.83158
      1.03236      1.85743
      1.04174      1.88320
      1.05116      1.90903
      1.06063      1.93515
      1.07014      1.96173
      1.07970      1.98882
      1.08930      2.01625
      1.09894      2.04369
      1.10863      2.07059
      1.11836      2.09631
      1.12814      2.12015
      1.13796      2.14156
      1.14783      2.16031
      1.15774      2.17651
      1.16770      2.19069
      1.17771      2.20353
      1.18776      2.21563
      1.19786      2.22750
      1.20800      2.23957
      1.21820      2.25223
      1.22844      2.26587
      1.23872      2.28083
      1.24905      2.29732
      1.25944      2.31539
      1.26986      2.33492
      1.28034      2.35575
      1.29087      2.37768
      1.30144      2.40045
      1.31206      2.42377
      1.32274      2.44735
      1.33346      2.47087
      1.34423      2.49411
      1.35505      2.51696
      1.36592      2.53949
      1.37684      2.56193
      1.38781      2.58464
      1.39883      2.60799
      1.40991      2.63222
      1.42103      2.65743
      1.43220      2.68360
      1.44343      2.71059
      1.45471      2.73830
      1.46604      2.76666
      1.47742      2.79570
      1.48886      2.82542
      1.50035      2.85584
      1.51189      2.88698
      1.52348      2.91893
      1.53513      2.95177
      1.54683      2.98560
      1.55859      3.02047
      1.57040      3.05641
      1.58226      3.09345
      1.59418      3.13158
      1.60615      3.17088
      1.61818      3.21148
      1.63027      3.25354
      1.64241      3.29707
      1.65461      3.34189
      1.66686      3.38768
      1.67917      3.43397
      1.69153      3.48024
      1.70396      3.52604
      1.71644      3.57108
      1.72898      3.61526
      1.74157      3.65868
      1.75423      3.70161
      1.76694      3.74445
      1.77971      3.78757
      1.79254      3.83132
      1.80543      3.87598
      1.81838      3.92161
      1.83139      3.96813
      1.84446      4.01532
      1.85759      4.06294
      1.87078      4.11071
      1.88403      4.15833
      1.89734      4.20560
      1.91072      4.25240
      1.92415      4.29858
      1.93765      4.34404
      1.95121      4.38860
      1.96483      4.43212
      1.97852      4.47441
      1.99226      4.51531
      2.00608      4.55463
      2.01995      4.59224
      2.03389      4.62804
      2.04789      4.66204
      2.06196      4.69430
      2.07610      4.72485
      2.09030      4.75368
      2.10456      4.78072
      2.11889      4.80589
      2.13329      4.82914
      2.14775      4.85046
      2.16228      4.86985
      2.17687      4.88738
      2.19154      4.90309
      2.20627      4.91701
      2.22107      4.92918
      2.23594      4.93962
      2.25087      4.94840
      2.26588      4.95567
      2.28095      4.96170
      2.29610      4.96683
      2.31131      4.97132
      2.32660      4.97534
      2.34195      4.97896
      2.35738      4.98225
      2.37287      4.98524
      2.38844      4.98798
      2.40408      4.99058
      2.41979      4.99315
      2.43558      4.99582
      2.45144      4.99865
      2.46737      5.00170
      2.48337      5.00497
      2.49945      5.00850
      2.51560      5.01228
      2.53183      5.01636
      2.54813      5.02080
      2.56451      5.02572
      2.58096      5.03118
      2.59749      5.03724
      2.61410      5.04392
      2.63078      5.05120
      2.64754      5.05906
      2.66438      5.06748
      2.68129      5.07643
      2.69828      5.08587
      2.71535      5.09577
      2.73250      5.10610
      2.74973      5.11684
      2.76704      5.12797
      2.78443      5.13948
      2.80189      5.15136
      2.81944      5.16361
      2.83707      5.17618
      2.85478      5.18905
      2.87258      5.20214
      2.89045      5.21533
      2.90841      5.22854
      2.92645      5.24171
      2.94457      5.25479
      2.96278      5.26778
      2.98107      5.28064
      2.99945      5.29338
      3.01791      5.30597
      3.03645      5.31842
      3.05509      5.33068
      3.07380      5.34274
      3.09261      5.35457
      3.11150      5.36613
      3.13048      5.37740
      3.14954      5.38838
      3.16869      5.39905
      3.18794      5.40941
      3.20727      5.41944
      3.22669      5.42914
      3.24620      5.43850
      3.26580      5.44752
      3.28549      5.45620
      3.30527      5.46452
      3.32514      5.47249
      3.34510      5.48010
      3.36516      5.48735
      3.38531      5.49425
      3.40555      5.50078
      3.42588      5.50697
      3.44631      5.51280
      3.46684      5.51831
      3.48745      5.52353
      3.50817      5.52851
      3.52898      5.53327
      3.54988      5.53785
      3.57088      5.54224
      3.59198      5.54644
      3.61318      5.55044
      3.63447      5.55422
      3.65586      5.55778
      3.67735      5.56108
      3.69894      5.56410
      3.72063      5.56681
      3.74242      5.56917
      3.76431      5.57120
      3.78630      5.57293
      3.80839      5.57444
      3.83059      5.57584
      3.85288      5.57726
      3.87529      5.57882
      3.89779      5.58057
      3.92039      5.58248
      3.94311      5.58437
      3.96592      5.58600
      3.98884      5.58711
      4.01187      5.58751
      4.03501      5.58715
      4.05825      5.58603
      4.08159      5.58419
      4.10505      5.58172
      4.12861      5.57873
      4.15229      5.57533
      4.17607      5.57164
      4.19996      5.56771
      4.22396      5.56360
      4.24808      5.55938
      4.27230      5.55514
      4.29663      5.55090
      4.32108      5.54664
      4.34564      5.54226
      4.37032      5.53768
      4.39511      5.53286
      4.42001      5.52786
      4.44503      5.52277
      4.47016      5.51768
      4.49541      5.51268
      4.52077      5.50781
      4.54626      5.50316
      4.57186      5.49884
      4.59758      5.49504
      4.62341      5.49197
      4.64937      5.48982
      4.67545      5.48865
      4.70164      5.48832
      4.72796      5.48855
      4.75440      5.48896
      4.78096      5.48927
      4.80764      5.48932
      4.83445      5.48914
      4.86138      5.48875
      4.88844      5.48809
      4.91562      5.48693
      4.94292      5.48505
      4.97035      5.48236
      4.99791      5.47879
      5.02560      5.47436
      5.05341      5.46913
      5.08135      5.46351
      5.10942      5.45811
      5.13762      5.45341
      5.16595      5.44943
      5.19441      5.44586
      5.22300      5.44239
      5.25173      5.43896
      5.28058      5.43564
      5.30957      5.43244
      5.33870      5.42927
      5.36796      5.42606
      5.39735      5.42290
      5.42688      5.41984
      5.45654      5.41680
      5.48634      5.41348
      5.51628      5.40962
      5.54636      5.40528
      5.57658      5.40086
      5.60693      5.39687
      5.63743      5.39361
      5.66807      5.39114
      5.69885      5.38927
      5.72977      5.38781
      5.76083      5.38669
      5.79204      5.38581
      5.82339      5.38512
      5.85488      5.38457
      5.88652      5.38404
      5.91831      5.38339
      5.95024      5.38251
      5.98232      5.38134
      6.01455      5.38012
      6.04693      5.37921
      6.07946      5.37895
      6.11213      5.37930
      6.14496      5.37999
      6.17794      5.38057
      6.21107      5.38069
      6.24436      5.38045
      6.27780      5.38052
      6.31139      5.38165
      6.34514      5.38418
      6.37904      5.38823
      6.41310      5.39385
      6.44732      5.40115
      6.48170      5.41019
      6.51623      5.42079
      6.55092      5.43267
      6.58578      5.44584
      6.62079      5.46031
      6.65597      5.47598
      6.69130      5.49259
      6.72681      5.50992
      6.76247      5.52773
      6.79830      5.54571
      6.83430      5.56369
      6.87046      5.58181
      6.90679      5.60026
      6.94328      5.61902
      6.97995      5.63802
      7.01678      5.65740
      7.05378      5.67739
      7.09096      5.69800
      7.12831      5.71882
      7.16582      5.73920
      7.20352      5.75852
      7.24138      5.77654
      7.27942      5.79355
      7.31764      5.81018
      7.35603      5.82715
      7.39460      5.84468
      7.43335      5.86245
      7.47227      5.87985
      7.51138      5.89633
      7.55067      5.91167
      7.59014      5.92602
      7.62979      5.93934
      7.66962      5.95143
      7.70964      5.96245
      7.74984      5.97354
      7.79023      5.98617
      7.83080      6.00080
      7.87156      6.01668
      7.91251      6.03271
      7.95365      6.04800
      7.99498      6.06197
      8.03649      6.07417
      8.07821      6.08425
      8.12011      6.09198
      8.16220      6.09720
      8.20450      6.09991
      8.24698      6.10020
      8.28966      6.09843
      8.33254      6.09515
      8.37562      6.09095
      8.41890      6.08626
      8.46237      6.08136
      8.50605      6.07638
      8.54993      6.07141
      8.59401      6.06652
      8.63829      6.06175
      8.68278      6.05715
      8.72747      6.05274
      8.77237      6.04852
      8.81748      6.04444
      8.86279      6.04043
      8.90832      6.03643
      8.95405      6.03242
      9.00000      6.02839
      9.04616      6.02434
      9.09253      6.02022
      9.13911      6.01597
      9.18591      6.01158
      9.23293      6.00718
      9.28016      6.00288
      9.32762      5.99874
      9.37529      5.99478
      9.42317      5.99095
      9.47128      5.98724
      9.51962      5.98364
      9.56818      5.98010
      9.61696      5.97657
      9.66596      5.97299
      9.71519      5.96934
      9.76465      5.96562
      9.81434      5.96186
      9.86426      5.95816
      9.91440      5.95458
      9.96478      5.95115
      10.0154      5.94784
      10.0662      5.94458
      10.1173      5.94138
      10.1686      5.93829
      10.2202      5.93543
      10.2720      5.93286
      10.3240      5.93056
      10.3763      5.92848
      10.4288      5.92655
      10.4815      5.92470
      10.5345      5.92286
      10.5878      5.92097
      10.6413      5.91898
      10.6950      5.91689
      10.7490      5.91468
      10.8032      5.91235
      10.8577      5.90991
      10.9124      5.90733
      10.9674      5.90457
      11.0226      5.90165
      11.0781      5.89868
      11.1339      5.89581
      11.1899      5.89316
      11.2462      5.89078
      11.3027      5.88864
      11.3595      5.88668
      11.4165      5.88494
      11.4738      5.88346
      11.5314      5.88232
      11.5893      5.88150
      11.6474      5.88094
      11.7057      5.88051
      11.7644      5.88012
      11.8233      5.87965
      11.8825      5.87900
      11.9420      5.87816
      12.0017      5.87716
      12.0617      5.87604
      12.1220      5.87483
      12.1826      5.87356
      12.2434      5.87221
      12.3045      5.87080
      12.3660      5.86932
      12.4277      5.86778
      12.4896      5.86627
      12.5519      5.86488
      12.6144      5.86371
      12.6773      5.86279
      12.7404      5.86206
      12.8038      5.86143
      12.8676      5.86083
      12.9316      5.86026
      12.9959      5.85975
      13.0605      5.85937
      13.1254      5.85916
      13.1906      5.85913
      13.2561      5.85928
      13.3219      5.85961
      13.3880      5.86010
      13.4544      5.86072
      13.5211      5.86146
      13.5881      5.86228
      13.6555      5.86320
      13.7231      5.86420
      13.7911      5.86529
      13.8594      5.86646
      13.9279      5.86765
      13.9968      5.86883
      14.0661      5.86993
      14.1356      5.87092
      14.2055      5.87176
      14.2757      5.87243
      14.3462      5.87291
      14.4170      5.87323
      14.4882      5.87343
      14.5597      5.87360
      14.6315      5.87381
      14.7036      5.87414
      14.7761      5.87465
      14.8489      5.87540
      14.9221      5.87643
      14.9956      5.87774
      15.0694      5.87931
      15.1436      5.88108
      15.2181      5.88302
      15.2930      5.88509
      15.3682      5.88726
      15.4437      5.88949
      15.5196      5.89174
      15.5959      5.89393
      15.6725      5.89596
      15.7494      5.89775
      15.8267      5.89931
      15.9044      5.90079
      15.9824      5.90230
      16.0608      5.90388
      16.1396      5.90554
      16.2187      5.90724
      16.2982      5.90902
      16.3780      5.91092
      16.4582      5.91302
      16.5388      5.91538
      16.6198      5.91803
      16.7011      5.92097
      16.7828      5.92418
      16.8649      5.92759
      16.9473      5.93117
      17.0302      5.93485
      17.1134      5.93860
      17.1970      5.94239
      17.2810      5.94621
      17.3654      5.95005
      17.4502      5.95391
      17.5353      5.95781
      17.6209      5.96180
      17.7068      5.96589
      17.7932      5.97012
      17.8799      5.97451
      17.9671      5.97906
      18.0546      5.98377
      18.1426      5.98867
      18.2309      5.99376
      18.3197      5.99903
      18.4089      6.00447
      18.4984      6.01005
      18.5884      6.01576
      18.6789      6.02157
      18.7697      6.02750
      18.8609      6.03355
      18.9526      6.03973
      19.0447      6.04604
      19.1372      6.05248
      19.2302      6.05906
      19.3236      6.06577
      19.4174      6.07259
      19.5116      6.07953
      19.6063      6.08657
      19.7014      6.09369
      19.7970      6.10086
      19.8930      6.10808
      19.9894      6.11534
      20.0863      6.12259
      20.1836      6.12982
      20.2814      6.13700
      20.3796      6.14413
      20.4783      6.15120
      20.5774      6.15821
      20.6770      6.16515
      20.7771      6.17202
      20.8776      6.17880
      20.9786      6.18552
      21.0800      6.19219
      21.1820      6.19887
      21.2844      6.20563
      21.3872      6.21250
      21.4905      6.21950
      21.5944      6.22664
      21.6986      6.23391
      21.8034      6.24130
      21.9087      6.24877
      22.0144      6.25630
      22.1206      6.26389
      22.2274      6.27150
      22.3346      6.27909
      22.4423      6.28661
      22.5505      6.29405
      22.6592      6.30139
      22.7684      6.30864
      22.8781      6.31582
      22.9883      6.32298
      23.0991      6.33015
      23.2103      6.33735
      23.3220      6.34461
      23.4343      6.35196
      23.5471      6.35942
      23.6604      6.36702
      23.7742      6.37477
      23.8886      6.38265
      24.0035      6.39066
      24.1189      6.39878
      24.2348      6.40700
      24.3513      6.41532
      24.4683      6.42375
      24.5859      6.43229
      24.7040      6.44096
      24.8226      6.44977
      24.9418      6.45871
      25.0615      6.46780
      25.1818      6.47705
      25.3027      6.48646
      25.4241      6.49606
      25.5461      6.50584
      25.6686      6.51580
      25.7917      6.52594
      25.9153      6.53625
      26.0396      6.54673
      26.1644      6.55736
      26.2898      6.56817
      26.4157      6.57913
      26.5423      6.59025
      26.6694      6.60153
      26.7971      6.61295
      26.9254      6.62450
      27.0543      6.63618
      27.1838      6.64800
      27.3139      6.65994
      27.4446      6.67203
      27.5759      6.68427
      27.7078      6.69666
      27.8403      6.70920
      27.9734      6.72190
