----------------------------------------------------------------------
SPECTRUM: CWW_E_ext
FILTER:        SDSS u + CCD, [MT]  no atmosphere (Ref. F. Castander)
----------------------------------------------------------------------
      0.00000      0.00000
   0.00461578    0.0117527
   0.00925291    0.0233983
    0.0139114    0.0354386
    0.0185914    0.0482502
    0.0232930    0.0621981
    0.0280163    0.0773884
    0.0327615    0.0939880
    0.0375284     0.111908
    0.0423174     0.130947
    0.0471286     0.150941
    0.0519619     0.171676
    0.0568175     0.192954
    0.0616956     0.214553
    0.0665962     0.236321
    0.0715193     0.258082
    0.0764652     0.279891
    0.0814340     0.301758
    0.0864257     0.323856
    0.0914403     0.346339
    0.0964782     0.369365
     0.101539     0.392993
     0.106624     0.417294
     0.111732     0.442320
     0.116863     0.468086
     0.122018     0.494658
     0.127198     0.522025
     0.132400     0.550181
     0.137627     0.579090
     0.142878     0.608839
     0.148154     0.639332
     0.153453     0.670641
     0.158777     0.702806
     0.164126     0.735902
     0.169499     0.769976
     0.174898     0.805229
     0.180321     0.841735
     0.185769     0.879530
     0.191242     0.918663
     0.196741     0.959087
     0.202264      1.00071
     0.207814      1.04338
     0.213389      1.08693
     0.218990      1.13098
     0.224616      1.17524
     0.230269      1.21936
     0.235947      1.26315
     0.241652      1.30655
     0.247383      1.34970
     0.253141      1.39270
     0.258925      1.43578
     0.264736      1.47914
     0.270574      1.52299
     0.276439      1.56757
     0.282331      1.61304
     0.288249      1.65938
     0.294196      1.70651
     0.300170      1.75429
     0.306171      1.80258
     0.312200      1.85123
     0.318257      1.90006
     0.324342      1.94885
     0.330454      1.99738
     0.336596      2.04548
     0.342765      2.09306
     0.348963      2.13999
     0.355189      2.18611
     0.361445      2.23119
     0.367729      2.27504
     0.374042      2.31755
     0.380384      2.35855
     0.386756      2.39795
     0.393157      2.43564
     0.399587      2.47162
     0.406048      2.50588
     0.412538      2.53841
     0.419057      2.56904
     0.425608      2.59769
     0.432188      2.62420
     0.438799      2.64849
     0.445440      2.67055
     0.452112      2.69042
     0.458814      2.70807
     0.465548      2.72355
     0.472312      2.73690
     0.479108      2.74822
     0.485936      2.75768
     0.492794      2.76548
     0.499685      2.77184
     0.506607      2.77696
     0.513561      2.78112
     0.520548      2.78448
     0.527566      2.78723
     0.534617      2.78950
     0.541700      2.79139
     0.548817      2.79296
     0.555966      2.79436
     0.563148      2.79567
     0.570363      2.79703
     0.577611      2.79849
     0.584893      2.80011
     0.592209      2.80191
     0.599558      2.80396
     0.606941      2.80636
     0.614359      2.80917
     0.621810      2.81246
     0.629296      2.81627
     0.636817      2.82067
     0.644372      2.82571
     0.651962      2.83142
     0.659587      2.83777
     0.667247      2.84472
     0.674943      2.85227
     0.682674      2.86042
     0.690441      2.86917
     0.698244      2.87853
     0.706082      2.88846
     0.713957      2.89891
     0.721869      2.90988
     0.729816      2.92133
     0.737801      2.93325
     0.745822      2.94558
     0.753881      2.95828
     0.761976      2.97126
     0.770109      2.98447
     0.778279      2.99784
     0.786488      3.01131
     0.794734      3.02484
     0.803018      3.03837
     0.811340      3.05186
     0.819701      3.06528
     0.828100      3.07862
     0.836538      3.09185
     0.845015      3.10495
     0.853532      3.11787
     0.862087      3.13059
     0.870682      3.14307
     0.879317      3.15530
     0.887991      3.16725
     0.896706      3.17891
     0.905461      3.19025
     0.914256      3.20125
     0.923092      3.21192
     0.931968      3.22226
     0.940886      3.23227
     0.949845      3.24193
     0.958845      3.25119
     0.967886      3.26006
     0.976970      3.26854
     0.986095      3.27661
     0.995262      3.28429
      1.00447      3.29157
      1.01372      3.29845
      1.02302      3.30495
      1.03236      3.31109
      1.04174      3.31692
      1.05116      3.32246
      1.06063      3.32774
      1.07014      3.33275
      1.07970      3.33752
      1.08930      3.34206
      1.09894      3.34637
      1.10863      3.35045
      1.11836      3.35429
      1.12814      3.35787
      1.13796      3.36120
      1.14783      3.36429
      1.15774      3.36716
      1.16770      3.36984
      1.17771      3.37235
      1.18776      3.37472
      1.19786      3.37699
      1.20800      3.37917
      1.21820      3.38126
      1.22844      3.38318
      1.23872      3.38495
      1.24905      3.38651
      1.25944      3.38784
      1.26986      3.38885
      1.28034      3.38943
      1.29087      3.38955
      1.30144      3.38948
      1.31206      3.38915
      1.32274      3.38841
      1.33346      3.38730
      1.34423      3.38585
      1.35505      3.38414
      1.36592      3.38225
      1.37684      3.38012
      1.38781      3.37741
      1.39883      3.37432
      1.40991      3.37091
      1.42103      3.36730
      1.43220      3.36346
      1.44343      3.35953
      1.45471      3.35499
      1.46604      3.34990
      1.47742      3.34473
      1.48886      3.33981
      1.50035      3.33524
      1.51189      3.33089
      1.52348      3.32635
      1.53513      3.32155
      1.54683      3.31722
      1.55859      3.31341
      1.57040      3.30997
      1.58226      3.30640
      1.59418      3.30268
      1.60615      3.29909
      1.61818      3.29637
      1.63027      3.29445
      1.64241      3.29282
      1.65461      3.29085
      1.66686      3.28864
      1.67917      3.28647
      1.69153      3.28484
      1.70396      3.28368
      1.71644      3.28185
      1.72898      3.27923
      1.74157      3.27618
      1.75423      3.27318
      1.76694      3.27033
      1.77971      3.26746
      1.79254      3.26409
      1.80543      3.26076
      1.81838      3.25790
      1.83139      3.25546
      1.84446      3.25314
      1.85759      3.25081
      1.87078      3.24828
      1.88403      3.24548
      1.89734      3.24291
      1.91072      3.24061
      1.92415      3.23828
      1.93765      3.23562
      1.95121      3.23261
      1.96483      3.22909
      1.97852      3.22560
      1.99226      3.22207
      2.00608      3.21840
      2.01995      3.21478
      2.03389      3.21205
      2.04789      3.21015
      2.06196      3.20832
      2.07610      3.20587
      2.09030      3.20287
      2.10456      3.19982
      2.11889      3.19732
      2.13329      3.19546
      2.14775      3.19344
      2.16228      3.19092
      2.17687      3.18783
      2.19154      3.18470
      2.20627      3.18176
      2.22107      3.17945
      2.23594      3.17752
      2.25087      3.17578
      2.26588      3.17417
      2.28095      3.17351
      2.29610      3.17389
      2.31131      3.17535
      2.32660      3.17749
      2.34195      3.17998
      2.35738      3.18298
      2.37287      3.18720
      2.38844      3.19301
      2.40408      3.19979
      2.41979      3.20731
      2.43558      3.21540
      2.45144      3.22438
      2.46737      3.23403
      2.48337      3.24507
      2.49945      3.25695
      2.51560      3.26932
      2.53183      3.28187
      2.54813      3.29512
      2.56451      3.30960
      2.58096      3.32621
      2.59749      3.34445
      2.61410      3.36314
      2.63078      3.38150
      2.64754      3.39995
      2.66438      3.41963
      2.68129      3.44006
      2.69828      3.46099
      2.71535      3.48118
      2.73250      3.50046
      2.74973      3.51959
      2.76704      3.53960
      2.78443      3.56006
      2.80189      3.58065
      2.81944      3.60060
      2.83707      3.61970
      2.85478      3.63825
      2.87258      3.65680
      2.89045      3.67535
      2.90841      3.69289
      2.92645      3.70939
      2.94457      3.72495
      2.96278      3.74004
      2.98107      3.75535
      2.99945      3.77148
      3.01791      3.78827
      3.03645      3.80559
      3.05509      3.82304
      3.07380      3.84005
      3.09261      3.85594
      3.11150      3.87029
      3.13048      3.88256
      3.14954      3.89258
      3.16869      3.90022
      3.18794      3.90545
      3.20727      3.90828
      3.22669      3.90901
      3.24620      3.90792
      3.26580      3.90549
      3.28549      3.90221
      3.30527      3.89838
      3.32514      3.89415
      3.34510      3.88963
      3.36516      3.88494
      3.38531      3.88021
      3.40555      3.87565
      3.42588      3.87121
      3.44631      3.86685
      3.46684      3.86247
      3.48745      3.85804
      3.50817      3.85349
      3.52898      3.84897
      3.54988      3.84449
      3.57088      3.84009
      3.59198      3.83570
      3.61318      3.83123
      3.63447      3.82669
      3.65586      3.82224
      3.67735      3.81799
      3.69894      3.81395
      3.72063      3.81003
      3.74242      3.80608
      3.76431      3.80213
      3.78630      3.79825
      3.80839      3.79452
      3.83059      3.79086
      3.85288      3.78720
      3.87529      3.78342
      3.89779      3.77952
      3.92039      3.77564
      3.94311      3.77191
      3.96592      3.76829
      3.98884      3.76478
      4.01187      3.76132
      4.03501      3.75784
      4.05825      3.75447
      4.08159      3.75129
      4.10505      3.74827
      4.12861      3.74533
      4.15229      3.74251
      4.17607      3.73978
      4.19996      3.73729
      4.22396      3.73503
      4.24808      3.73289
      4.27230      3.73068
      4.29663      3.72842
      4.32108      3.72613
      4.34564      3.72389
      4.37032      3.72176
      4.39511      3.71967
      4.42001      3.71746
      4.44503      3.71507
      4.47016      3.71256
      4.49541      3.70992
      4.52077      3.70735
      4.54626      3.70491
      4.57186      3.70260
      4.59758      3.70039
      4.62341      3.69830
      4.64937      3.69628
      4.67545      3.69442
      4.70164      3.69275
      4.72796      3.69125
      4.75440      3.68982
      4.78096      3.68847
      4.80764      3.68720
      4.83445      3.68603
      4.86138      3.68498
      4.88844      3.68394
      4.91562      3.68283
      4.94292      3.68161
      4.97035      3.68041
      4.99791      3.67929
      5.02560      3.67828
      5.05341      3.67734
      5.08135      3.67640
      5.10942      3.67542
      5.13762      3.67442
      5.16595      3.67343
      5.19441      3.67247
      5.22300      3.67151
      5.25173      3.67054
      5.28058      3.66955
      5.30957      3.66853
      5.33870      3.66753
      5.36796      3.66663
      5.39735      3.66581
      5.42688      3.66509
      5.45654      3.66454
      5.48634      3.66421
      5.51628      3.66408
      5.54636      3.66417
      5.57658      3.66441
      5.60693      3.66478
      5.63743      3.66531
      5.66807      3.66603
      5.69885      3.66688
      5.72977      3.66781
      5.76083      3.66881
      5.79204      3.66978
      5.82339      3.67068
      5.85488      3.67157
      5.88652      3.67244
      5.91831      3.67323
      5.95024      3.67392
      5.98232      3.67444
      6.01455      3.67483
      6.04693      3.67521
      6.07946      3.67568
      6.11213      3.67616
      6.14496      3.67663
      6.17794      3.67713
      6.21107      3.67775
      6.24436      3.67864
      6.27780      3.67987
      6.31139      3.68135
      6.34514      3.68292
      6.37904      3.68456
      6.41310      3.68627
      6.44732      3.68811
      6.48170      3.69010
      6.51623      3.69219
      6.55092      3.69424
      6.58578      3.69621
      6.62079      3.69806
      6.65597      3.69981
      6.69130      3.70149
      6.72681      3.70312
      6.76247      3.70474
      6.79830      3.70636
      6.83430      3.70802
      6.87046      3.70972
      6.90679      3.71148
      6.94328      3.71333
      6.97995      3.71533
      7.01678      3.71751
      7.05378      3.71986
      7.09096      3.72238
      7.12831      3.72502
      7.16582      3.72779
      7.20352      3.73067
      7.24138      3.73368
      7.27942      3.73681
      7.31764      3.74005
      7.35603      3.74340
      7.39460      3.74687
      7.43335      3.75047
      7.47227      3.75424
      7.51138      3.75821
      7.55067      3.76237
      7.59014      3.76670
      7.62979      3.77117
      7.66962      3.77578
      7.70964      3.78054
      7.74984      3.78544
      7.79023      3.79046
      7.83080      3.79557
      7.87156      3.80076
      7.91251      3.80601
      7.95365      3.81136
      7.99498      3.81682
      8.03649      3.82241
      8.07821      3.82813
      8.12011      3.83401
      8.16220      3.84003
      8.20450      3.84624
      8.24698      3.85263
      8.28966      3.85921
      8.33254      3.86593
      8.37562      3.87279
      8.41890      3.87977
      8.46237      3.88685
      8.50605      3.89404
      8.54993      3.90130
      8.59401      3.90861
      8.63829      3.91593
      8.68278      3.92322
      8.72747      3.93045
      8.77237      3.93762
      8.81748      3.94471
      8.86279      3.95174
      8.90832      3.95869
      8.95405      3.96558
      9.00000      3.97240
      9.04616      3.97918
      9.09253      3.98595
      9.13911      3.99277
      9.18591      3.99965
      9.23293      4.00666
      9.28016      4.01378
      9.32762      4.02103
      9.37529      4.02837
      9.42317      4.03578
      9.47128      4.04326
      9.51962      4.05078
      9.56818      4.05832
      9.61696      4.06585
      9.66596      4.07334
      9.71519      4.08076
      9.76465      4.08810
      9.81434      4.09537
      9.86426      4.10258
      9.91440      4.10974
      9.96478      4.11687
      10.0154      4.12400
      10.0662      4.13114
      10.1173      4.13831
      10.1686      4.14553
      10.2202      4.15282
      10.2720      4.16019
      10.3240      4.16767
      10.3763      4.17524
      10.4288      4.18292
      10.4815      4.19072
      10.5345      4.19866
      10.5878      4.20673
      10.6413      4.21493
      10.6950      4.22328
      10.7490      4.23176
      10.8032      4.24039
      10.8577      4.24917
      10.9124      4.25809
      10.9674      4.26713
      11.0226      4.27631
      11.0781      4.28562
      11.1339      4.29509
      11.1899      4.30472
      11.2462      4.31452
      11.3027      4.32446
      11.3595      4.33455
      11.4165      4.34481
      11.4738      4.35526
      11.5314      4.36589
      11.5893      4.37670
      11.6474      4.38768
      11.7057      4.39881
      11.7644      4.41008
      11.8233      4.42152
      11.8825      4.43312
      11.9420      4.44487
      12.0017      4.45678
      12.0617      4.46885
      12.1220      4.48110
      12.1826      4.49356
      12.2434      4.50618
      12.3045      4.51895
      12.3660      4.53185
      12.4277      4.54487
      12.4896      4.55799
      12.5519      4.57121
      12.6144      4.58450
      12.6773      4.59786
      12.7404      4.61128
      12.8038      4.62477
      12.8676      4.63831
      12.9316      4.65191
      12.9959      4.66562
      13.0605      4.67945
      13.1254      4.69344
      13.1906      4.70759
      13.2561      4.72187
      13.3219      4.73625
      13.3880      4.75071
      13.4544      4.76525
      13.5211      4.77988
      13.5881      4.79458
      13.6555      4.80933
      13.7231      4.82411
      13.7911      4.83891
      13.8594      4.85373
      13.9279      4.86858
      13.9968      4.88348
      14.0661      4.89844
      14.1356      4.91347
      14.2055      4.92858
      14.2757      4.94376
      14.3462      4.95904
      14.4170      4.97441
      14.4882      4.98987
      14.5597      5.00543
      14.6315      5.02109
      14.7036      5.03686
      14.7761      5.05274
      14.8489      5.06874
      14.9221      5.08485
      14.9956      5.10108
      15.0694      5.11744
      15.1436      5.13392
      15.2181      5.15054
      15.2930      5.16729
      15.3682      5.18416
      15.4437      5.20115
      15.5196      5.21828
      15.5959      5.23554
      15.6725      5.25293
      15.7494      5.27046
      15.8267      5.28812
      15.9044      5.30590
      15.9824      5.32382
      16.0608      5.34188
      16.1396      5.36008
      16.2187      5.37841
      16.2982      5.39688
      16.3780      5.41549
      16.4582      5.43424
      16.5388      5.45313
      16.6198      5.47217
      16.7011      5.49134
      16.7828      5.51066
      16.8649      5.53012
      16.9473      5.54972
      17.0302      5.56948
      17.1134      5.58938
      17.1970      5.60943
      17.2810      5.62962
      17.3654      5.64996
      17.4502      5.67045
      17.5353      5.69108
      17.6209      5.71186
      17.7068      5.73279
      17.7932      5.75387
      17.8799      5.77510
      17.9671      5.79648
      18.0546      5.81800
      18.1426      5.83968
      18.2309      5.86152
      18.3197      5.88351
      18.4089      5.90565
      18.4984      5.92794
      18.5884      5.95039
      18.6789      5.97299
      18.7697      5.99575
      18.8609      6.01867
      18.9526      6.04174
      19.0447      6.06497
      19.1372      6.08836
      19.2302      6.11190
      19.3236      6.13561
      19.4174      6.15949
      19.5116      6.18353
      19.6063      6.20773
      19.7014      6.23209
      19.7970      6.25661
      19.8930      6.28129
      19.9894      6.30614
      20.0863      6.33115
      20.1836      6.35632
      20.2814      6.38165
      20.3796      6.40715
      20.4783      6.43282
      20.5774      6.45865
      20.6770      6.48466
      20.7771      6.51084
      20.8776      6.53718
      20.9786      6.56370
      21.0800      6.59039
      21.1820      6.61726
      21.2844      6.64431
      21.3872      6.67152
      21.4905      6.69891
      21.5944      6.72648
      21.6986      6.75423
      21.8034      6.78215
      21.9087      6.81025
      22.0144      6.83853
      22.1206      6.86700
      22.2274      6.89566
      22.3346      6.92450
      22.4423      6.95351
      22.5505      6.98270
      22.6592      7.01208
      22.7684      7.04166
      22.8781      7.07143
      22.9883      7.10137
      23.0991      7.13149
      23.2103      7.16179
      23.3220      7.19229
      23.4343      7.22300
      23.5471      7.25389
      23.6604      7.28497
      23.7742      7.31623
      23.8886      7.34769
      24.0035      7.37936
      24.1189      7.41123
      24.2348      7.44329
      24.3513      7.47553
      24.4683      7.50795
      24.5859      7.54058
      24.7040      7.57342
      24.8226      7.60646
      24.9418      7.63969
      25.0615      7.67312
      25.1818      7.70673
      25.3027      7.74056
      25.4241      7.77459
      25.5461      7.80882
      25.6686      7.84325
      25.7917      7.87789
      25.9153      7.91271
      26.0396      7.94774
      26.1644      7.98296
      26.2898      8.01838
      26.4157      8.05402
      26.5423      8.08986
      26.6694      8.12590
      26.7971      8.16214
      26.9254      8.19860
      27.0543      8.23529
      27.1838      8.27219
      27.3139      8.30930
      27.4446      8.34660
      27.5759      8.38410
      27.7078      8.42182
      27.8403      8.45978
      27.9734      8.49796
