----------------------------------------------------------------------
SPECTRUM: CWW_E_ext
FILTER:        SDSS g + CCD, [MT]  no atmosphere (Ref. F. Castander)
----------------------------------------------------------------------
      0.00000      0.00000
   0.00461578    0.0137670
   0.00925291    0.0279135
    0.0139114    0.0425531
    0.0185914    0.0577040
    0.0232930    0.0733808
    0.0280163    0.0895384
    0.0327615     0.106047
    0.0375284     0.122699
    0.0423174     0.139363
    0.0471286     0.155837
    0.0519619     0.172015
    0.0568175     0.187922
    0.0616956     0.203723
    0.0665962     0.219599
    0.0715193     0.235744
    0.0764652     0.252249
    0.0814340     0.269118
    0.0864257     0.286413
    0.0914403     0.304190
    0.0964782     0.322548
     0.101539     0.341538
     0.106624     0.361177
     0.111732     0.381411
     0.116863     0.402213
     0.122018     0.423582
     0.127198     0.445605
     0.132400     0.468312
     0.137627     0.491720
     0.142878     0.515793
     0.148154     0.540433
     0.153453     0.565509
     0.158777     0.590875
     0.164126     0.616450
     0.169499     0.642175
     0.174898     0.668155
     0.180321     0.694497
     0.185769     0.721288
     0.191242     0.748516
     0.196741     0.776120
     0.202264     0.803972
     0.207814     0.831982
     0.213389     0.860080
     0.218990     0.888247
     0.224616     0.916434
     0.230269     0.944528
     0.235947     0.972452
     0.241652      1.00007
     0.247383      1.02738
     0.253141      1.05440
     0.258925      1.08116
     0.264736      1.10755
     0.270574      1.13362
     0.276439      1.15931
     0.282331      1.18475
     0.288249      1.21017
     0.294196      1.23581
     0.300170      1.26170
     0.306171      1.28784
     0.312200      1.31422
     0.318257      1.34091
     0.324342      1.36818
     0.330454      1.39633
     0.336596      1.42557
     0.342765      1.45582
     0.348963      1.48694
     0.355189      1.51841
     0.361445      1.54970
     0.367729      1.58008
     0.374042      1.60885
     0.380384      1.63547
     0.386756      1.65969
     0.393157      1.68154
     0.399587      1.70129
     0.406048      1.71941
     0.412538      1.73631
     0.419057      1.75245
     0.425608      1.76817
     0.432188      1.78393
     0.438799      1.80005
     0.445440      1.81708
     0.452112      1.83528
     0.458814      1.85485
     0.465548      1.87587
     0.472312      1.89833
     0.479108      1.92206
     0.485936      1.94679
     0.492794      1.97221
     0.499685      1.99791
     0.506607      2.02359
     0.513561      2.04893
     0.520548      2.07382
     0.527566      2.09825
     0.534617      2.12251
     0.541700      2.14693
     0.548817      2.17189
     0.555966      2.19760
     0.563148      2.22411
     0.570363      2.25136
     0.577611      2.27918
     0.584893      2.30746
     0.592209      2.33618
     0.599558      2.36540
     0.606941      2.39510
     0.614359      2.42528
     0.621810      2.45600
     0.629296      2.48738
     0.636817      2.51950
     0.644372      2.55258
     0.651962      2.58661
     0.659587      2.62162
     0.667247      2.65758
     0.674943      2.69446
     0.682674      2.73232
     0.690441      2.77136
     0.698244      2.81169
     0.706082      2.85319
     0.713957      2.89560
     0.721869      2.93851
     0.729816      2.98141
     0.737801      3.02376
     0.745822      3.06522
     0.753881      3.10548
     0.761976      3.14450
     0.770109      3.18237
     0.778279      3.21937
     0.786488      3.25593
     0.794734      3.29253
     0.803018      3.32953
     0.811340      3.36719
     0.819701      3.40556
     0.828100      3.44456
     0.836538      3.48406
     0.845015      3.52386
     0.853532      3.56371
     0.862087      3.60343
     0.870682      3.64289
     0.879317      3.68201
     0.887991      3.72073
     0.896706      3.75899
     0.905461      3.79666
     0.914256      3.83365
     0.923092      3.86984
     0.931968      3.90512
     0.940886      3.93941
     0.949845      3.97264
     0.958845      4.00478
     0.967886      4.03588
     0.976970      4.06600
     0.986095      4.09510
     0.995262      4.12321
      1.00447      4.15025
      1.01372      4.17618
      1.02302      4.20095
      1.03236      4.22451
      1.04174      4.24675
      1.05116      4.26766
      1.06063      4.28717
      1.07014      4.30523
      1.07970      4.32179
      1.08930      4.33681
      1.09894      4.35030
      1.10863      4.36237
      1.11836      4.37328
      1.12814      4.38326
      1.13796      4.39248
      1.14783      4.40102
      1.15774      4.40894
      1.16770      4.41625
      1.17771      4.42301
      1.18776      4.42926
      1.19786      4.43509
      1.20800      4.44061
      1.21820      4.44591
      1.22844      4.45103
      1.23872      4.45602
      1.24905      4.46090
      1.25944      4.46570
      1.26986      4.47044
      1.28034      4.47517
      1.29087      4.47997
      1.30144      4.48493
      1.31206      4.49013
      1.32274      4.49562
      1.33346      4.50142
      1.34423      4.50756
      1.35505      4.51406
      1.36592      4.52091
      1.37684      4.52814
      1.38781      4.53573
      1.39883      4.54366
      1.40991      4.55192
      1.42103      4.56050
      1.43220      4.56939
      1.44343      4.57861
      1.45471      4.58816
      1.46604      4.59802
      1.47742      4.60818
      1.48886      4.61860
      1.50035      4.62920
      1.51189      4.63992
      1.52348      4.65070
      1.53513      4.66148
      1.54683      4.67224
      1.55859      4.68297
      1.57040      4.69365
      1.58226      4.70426
      1.59418      4.71479
      1.60615      4.72523
      1.61818      4.73555
      1.63027      4.74573
      1.64241      4.75574
      1.65461      4.76557
      1.66686      4.77519
      1.67917      4.78458
      1.69153      4.79372
      1.70396      4.80258
      1.71644      4.81118
      1.72898      4.81948
      1.74157      4.82750
      1.75423      4.83522
      1.76694      4.84266
      1.77971      4.84985
      1.79254      4.85675
      1.80543      4.86330
      1.81838      4.86946
      1.83139      4.87524
      1.84446      4.88067
      1.85759      4.88574
      1.87078      4.89035
      1.88403      4.89445
      1.89734      4.89816
      1.91072      4.90156
      1.92415      4.90460
      1.93765      4.90721
      1.95121      4.90942
      1.96483      4.91121
      1.97852      4.91270
      1.99226      4.91387
      2.00608      4.91471
      2.01995      4.91516
      2.03389      4.91531
      2.04789      4.91508
      2.06196      4.91460
      2.07610      4.91413
      2.09030      4.91361
      2.10456      4.91293
      2.11889      4.91204
      2.13329      4.91094
      2.14775      4.90969
      2.16228      4.90853
      2.17687      4.90731
      2.19154      4.90604
      2.20627      4.90474
      2.22107      4.90366
      2.23594      4.90270
      2.25087      4.90188
      2.26588      4.90106
      2.28095      4.90018
      2.29610      4.89935
      2.31131      4.89878
      2.32660      4.89837
      2.34195      4.89794
      2.35738      4.89737
      2.37287      4.89639
      2.38844      4.89522
      2.40408      4.89396
      2.41979      4.89258
      2.43558      4.89087
      2.45144      4.88898
      2.46737      4.88687
      2.48337      4.88451
      2.49945      4.88169
      2.51560      4.87855
      2.53183      4.87523
      2.54813      4.87192
      2.56451      4.86865
      2.58096      4.86509
      2.59749      4.86142
      2.61410      4.85762
      2.63078      4.85373
      2.64754      4.84972
      2.66438      4.84585
      2.68129      4.84193
      2.69828      4.83793
      2.71535      4.83364
      2.73250      4.82930
      2.74973      4.82505
      2.76704      4.82114
      2.78443      4.81743
      2.80189      4.81359
      2.81944      4.80981
      2.83707      4.80624
      2.85478      4.80263
      2.87258      4.79871
      2.89045      4.79456
      2.90841      4.79004
      2.92645      4.78572
      2.94457      4.78200
      2.96278      4.77915
      2.98107      4.77698
      2.99945      4.77553
      3.01791      4.77447
      3.03645      4.77379
      3.05509      4.77348
      3.07380      4.77364
      3.09261      4.77381
      3.11150      4.77388
      3.13048      4.77392
      3.14954      4.77392
      3.16869      4.77433
      3.18794      4.77503
      3.20727      4.77582
      3.22669      4.77658
      3.24620      4.77783
      3.26580      4.77969
      3.28549      4.78224
      3.30527      4.78517
      3.32514      4.78868
      3.34510      4.79254
      3.36516      4.79679
      3.38531      4.80145
      3.40555      4.80666
      3.42588      4.81244
      3.44631      4.81846
      3.46684      4.82402
      3.48745      4.82859
      3.50817      4.83245
      3.52898      4.83602
      3.54988      4.84000
      3.57088      4.84421
      3.59198      4.84909
      3.61318      4.85425
      3.63447      4.85970
      3.65586      4.86528
      3.67735      4.87134
      3.69894      4.87802
      3.72063      4.88567
      3.74242      4.89399
      3.76431      4.90274
      3.78630      4.91189
      3.80839      4.92143
      3.83059      4.93122
      3.85288      4.94070
      3.87529      4.95017
      3.89779      4.95958
      3.92039      4.96948
      3.94311      4.98005
      3.96592      4.99131
      3.98884      5.00271
      4.01187      5.01432
      4.03501      5.02572
      4.05825      5.03693
      4.08159      5.04827
      4.10505      5.06004
      4.12861      5.07210
      4.15229      5.08430
      4.17607      5.09716
      4.19996      5.11075
      4.22396      5.12497
      4.24808      5.13934
      4.27230      5.15329
      4.29663      5.16578
      4.32108      5.17731
      4.34564      5.18824
      4.37032      5.19919
      4.39511      5.21061
      4.42001      5.22263
      4.44503      5.23481
      4.47016      5.24666
      4.49541      5.25794
      4.52077      5.26860
      4.54626      5.27858
      4.57186      5.28779
      4.59758      5.29636
      4.62341      5.30439
      4.64937      5.31335
      4.67545      5.32401
      4.70164      5.33627
      4.72796      5.34944
      4.75440      5.36286
      4.78096      5.37585
      4.80764      5.38796
      4.83445      5.39871
      4.86138      5.40775
      4.88844      5.41474
      4.91562      5.41966
      4.94292      5.42243
      4.97035      5.42319
      4.99791      5.42217
      5.02560      5.41990
      5.05341      5.41682
      5.08135      5.41334
      5.10942      5.40967
      5.13762      5.40587
      5.16595      5.40202
      5.19441      5.39811
      5.22300      5.39418
      5.25173      5.39025
      5.28058      5.38642
      5.30957      5.38263
      5.33870      5.37889
      5.36796      5.37514
      5.39735      5.37141
      5.42688      5.36771
      5.45654      5.36410
      5.48634      5.36048
      5.51628      5.35682
      5.54636      5.35307
      5.57658      5.34935
      5.60693      5.34574
      5.63743      5.34228
      5.66807      5.33899
      5.69885      5.33578
      5.72977      5.33260
      5.76083      5.32940
      5.79204      5.32624
      5.82339      5.32307
      5.85488      5.31993
      5.88652      5.31675
      5.91831      5.31352
      5.95024      5.31018
      5.98232      5.30683
      6.01455      5.30356
      6.04693      5.30043
      6.07946      5.29745
      6.11213      5.29454
      6.14496      5.29166
      6.17794      5.28886
      6.21107      5.28626
      6.24436      5.28385
      6.27780      5.28163
      6.31139      5.27956
      6.34514      5.27757
      6.37904      5.27567
      6.41310      5.27390
      6.44732      5.27222
      6.48170      5.27058
      6.51623      5.26898
      6.55092      5.26737
      6.58578      5.26569
      6.62079      5.26396
      6.65597      5.26220
      6.69130      5.26031
      6.72681      5.25834
      6.76247      5.25628
      6.79830      5.25421
      6.83430      5.25223
      6.87046      5.25043
      6.90679      5.24875
      6.94328      5.24717
      6.97995      5.24567
      7.01678      5.24431
      7.05378      5.24311
      7.09096      5.24207
      7.12831      5.24116
      7.16582      5.24036
      7.20352      5.23966
      7.24138      5.23901
      7.27942      5.23836
      7.31764      5.23768
      7.35603      5.23699
      7.39460      5.23635
      7.43335      5.23579
      7.47227      5.23535
      7.51138      5.23507
      7.55067      5.23489
      7.59014      5.23472
      7.62979      5.23450
      7.66962      5.23424
      7.70964      5.23399
      7.74984      5.23382
      7.79023      5.23374
      7.83080      5.23367
      7.87156      5.23357
      7.91251      5.23341
      7.95365      5.23315
      7.99498      5.23286
      8.03649      5.23258
      8.07821      5.23236
      8.12011      5.23221
      8.16220      5.23222
      8.20450      5.23240
      8.24698      5.23279
      8.28966      5.23341
      8.33254      5.23419
      8.37562      5.23508
      8.41890      5.23605
      8.46237      5.23711
      8.50605      5.23822
      8.54993      5.23941
      8.59401      5.24067
      8.63829      5.24193
      8.68278      5.24315
      8.72747      5.24433
      8.77237      5.24542
      8.81748      5.24644
      8.86279      5.24738
      8.90832      5.24823
      8.95405      5.24897
      9.00000      5.24970
      9.04616      5.25049
      9.09253      5.25140
      9.13911      5.25248
      9.18591      5.25377
      9.23293      5.25529
      9.28016      5.25703
      9.32762      5.25905
      9.37529      5.26132
      9.42317      5.26381
      9.47128      5.26653
      9.51962      5.26944
      9.56818      5.27247
      9.61696      5.27562
      9.66596      5.27884
      9.71519      5.28204
      9.76465      5.28515
      9.81434      5.28813
      9.86426      5.29102
      9.91440      5.29391
      9.96478      5.29686
      10.0154      5.29987
      10.0662      5.30290
      10.1173      5.30596
      10.1686      5.30907
      10.2202      5.31227
      10.2720      5.31560
      10.3240      5.31909
      10.3763      5.32273
      10.4288      5.32652
      10.4815      5.33044
      10.5345      5.33446
      10.5878      5.33853
      10.6413      5.34266
      10.6950      5.34684
      10.7490      5.35108
      10.8032      5.35538
      10.8577      5.35977
      10.9124      5.36424
      10.9674      5.36883
      11.0226      5.37356
      11.0781      5.37843
      11.1339      5.38345
      11.1899      5.38861
      11.2462      5.39389
      11.3027      5.39928
      11.3595      5.40476
      11.4165      5.41031
      11.4738      5.41593
      11.5314      5.42158
      11.5893      5.42727
      11.6474      5.43297
      11.7057      5.43870
      11.7644      5.44447
      11.8233      5.45030
      11.8825      5.45621
      11.9420      5.46223
      12.0017      5.46838
      12.0617      5.47466
      12.1220      5.48109
      12.1826      5.48767
      12.2434      5.49439
      12.3045      5.50126
      12.3660      5.50824
      12.4277      5.51533
      12.4896      5.52251
      12.5519      5.52975
      12.6144      5.53701
      12.6773      5.54428
      12.7404      5.55154
      12.8038      5.55879
      12.8676      5.56600
      12.9316      5.57317
      12.9959      5.58028
      13.0605      5.58734
      13.1254      5.59434
      13.1906      5.60132
      13.2561      5.60831
      13.3219      5.61537
      13.3880      5.62255
      13.4544      5.62988
      13.5211      5.63737
      13.5881      5.64504
      13.6555      5.65287
      13.7231      5.66085
      13.7911      5.66896
      13.8594      5.67718
      13.9279      5.68551
      13.9968      5.69390
      14.0661      5.70233
      14.1356      5.71076
      14.2055      5.71916
      14.2757      5.72753
      14.3462      5.73587
      14.4170      5.74421
      14.4882      5.75256
      14.5597      5.76093
      14.6315      5.76932
      14.7036      5.77775
      14.7761      5.78623
      14.8489      5.79479
      14.9221      5.80343
      14.9956      5.81219
      15.0694      5.82106
      15.1436      5.83005
      15.2181      5.83915
      15.2930      5.84837
      15.3682      5.85771
      15.4437      5.86716
      15.5196      5.87675
      15.5959      5.88647
      15.6725      5.89631
      15.7494      5.90626
      15.8267      5.91632
      15.9044      5.92649
      15.9824      5.93677
      16.0608      5.94715
      16.1396      5.95765
      16.2187      5.96824
      16.2982      5.97896
      16.3780      5.98979
      16.4582      6.00075
      16.5388      6.01184
      16.6198      6.02305
      16.7011      6.03440
      16.7828      6.04586
      16.8649      6.05746
      16.9473      6.06917
      17.0302      6.08100
      17.1134      6.09295
      17.1970      6.10504
      17.2810      6.11725
      17.3654      6.12962
      17.4502      6.14214
      17.5353      6.15483
      17.6209      6.16768
      17.7068      6.18070
      17.7932      6.19388
      17.8799      6.20722
      17.9671      6.22069
      18.0546      6.23430
      18.1426      6.24801
      18.2309      6.26180
      18.3197      6.27568
      18.4089      6.28960
      18.4984      6.30357
      18.5884      6.31759
      18.6789      6.33169
      18.7697      6.34591
      18.8609      6.36028
      18.9526      6.37483
      19.0447      6.38954
      19.1372      6.40442
      19.2302      6.41943
      19.3236      6.43456
      19.4174      6.44980
      19.5116      6.46516
      19.6063      6.48062
      19.7014      6.49617
      19.7970      6.51178
      19.8930      6.52741
      19.9894      6.54305
      20.0863      6.55869
      20.1836      6.57437
      20.2814      6.59014
      20.3796      6.60599
      20.4783      6.62193
      20.5774      6.63796
      20.6770      6.65407
      20.7771      6.67027
      20.8776      6.68657
      20.9786      6.70297
      21.0800      6.71947
      21.1820      6.73607
      21.2844      6.75279
      21.3872      6.76961
      21.4905      6.78656
      21.5944      6.80363
      21.6986      6.82083
      21.8034      6.83815
      21.9087      6.85559
      22.0144      6.87317
      22.1206      6.89088
      22.2274      6.90872
      22.3346      6.92668
      22.4423      6.94478
      22.5505      6.96301
      22.6592      6.98137
      22.7684      6.99986
      22.8781      7.01848
      22.9883      7.03724
      23.0991      7.05613
      23.2103      7.07515
      23.3220      7.09431
      23.4343      7.11361
      23.5471      7.13305
      23.6604      7.15262
      23.7742      7.17234
      23.8886      7.19220
      24.0035      7.21219
      24.1189      7.23233
      24.2348      7.25261
      24.3513      7.27304
      24.4683      7.29361
      24.5859      7.31433
      24.7040      7.33519
      24.8226      7.35620
      24.9418      7.37735
      25.0615      7.39865
      25.1818      7.42009
      25.3027      7.44168
      25.4241      7.46342
      25.5461      7.48531
      25.6686      7.50735
      25.7917      7.52953
      25.9153      7.55186
      26.0396      7.57435
      26.1644      7.59698
      26.2898      7.61977
      26.4157      7.64271
      26.5423      7.66580
      26.6694      7.68905
      26.7971      7.71245
      26.9254      7.73601
      27.0543      7.75972
      27.1838      7.78359
      27.3139      7.80761
      27.4446      7.83179
      27.5759      7.85613
      27.7078      7.88063
      27.8403      7.90530
      27.9734      7.93013
