----------------------------------------------------------------------
SPECTRUM: CWW_E_ext
FILTER:        SDSS r + CCD, [MT]  no atmosphere (Ref. F. Castander)
----------------------------------------------------------------------
      0.00000      0.00000
   0.00461578   0.00508566
   0.00925291    0.0102411
    0.0139114    0.0154417
    0.0185914    0.0206576
    0.0232930    0.0259048
    0.0280163    0.0311892
    0.0327615    0.0365616
    0.0375284    0.0421277
    0.0423174    0.0479550
    0.0471286    0.0541237
    0.0519619    0.0606455
    0.0568175    0.0674733
    0.0616956    0.0745322
    0.0665962    0.0817667
    0.0715193    0.0890318
    0.0764652    0.0962403
    0.0814340     0.103322
    0.0864257     0.110275
    0.0914403     0.117087
    0.0964782     0.123837
     0.101539     0.130573
     0.106624     0.137347
     0.111732     0.144257
     0.116863     0.151389
     0.122018     0.158730
     0.127198     0.166258
     0.132400     0.173944
     0.137627     0.181662
     0.142878     0.189363
     0.148154     0.196979
     0.153453     0.204454
     0.158777     0.211714
     0.164126     0.218800
     0.169499     0.225702
     0.174898     0.232450
     0.180321     0.239147
     0.185769     0.245897
     0.191242     0.252733
     0.196741     0.259761
     0.202264     0.267075
     0.207814     0.274682
     0.213389     0.282611
     0.218990     0.290877
     0.224616     0.299465
     0.230269     0.308332
     0.235947     0.317579
     0.241652     0.327166
     0.247383     0.337080
     0.253141     0.347327
     0.258925     0.357901
     0.264736     0.368730
     0.270574     0.379899
     0.276439     0.391488
     0.282331     0.403542
     0.288249     0.416180
     0.294196     0.429419
     0.300170     0.443092
     0.306171     0.457000
     0.312200     0.470972
     0.318257     0.484739
     0.324342     0.498139
     0.330454     0.511124
     0.336596     0.523745
     0.342765     0.536152
     0.348963     0.548640
     0.355189     0.561407
     0.361445     0.574588
     0.367729     0.588370
     0.374042     0.602894
     0.380384     0.618345
     0.386756     0.634892
     0.393157     0.652666
     0.399587     0.671712
     0.406048     0.691983
     0.412538     0.713400
     0.419057     0.735931
     0.425608     0.759523
     0.432188     0.784174
     0.438799     0.809779
     0.445440     0.836221
     0.452112     0.863279
     0.458814     0.890736
     0.465548     0.918377
     0.472312     0.946042
     0.479108     0.973694
     0.485936      1.00140
     0.492794      1.02930
     0.499685      1.05751
     0.506607      1.08611
     0.513561      1.11511
     0.520548      1.14447
     0.527566      1.17421
     0.534617      1.20432
     0.541700      1.23473
     0.548817      1.26530
     0.555966      1.29581
     0.563148      1.32604
     0.570363      1.35587
     0.577611      1.38530
     0.584893      1.41436
     0.592209      1.44303
     0.599558      1.47130
     0.606941      1.49898
     0.614359      1.52610
     0.621810      1.55280
     0.629296      1.57932
     0.636817      1.60575
     0.644372      1.63217
     0.651962      1.65847
     0.659587      1.68465
     0.667247      1.71091
     0.674943      1.73763
     0.682674      1.76506
     0.690441      1.79339
     0.698244      1.82263
     0.706082      1.85242
     0.713957      1.88236
     0.721869      1.91172
     0.729816      1.93982
     0.737801      1.96592
     0.745822      1.98964
     0.753881      2.01066
     0.761976      2.02926
     0.770109      2.04586
     0.778279      2.06095
     0.786488      2.07501
     0.794734      2.08838
     0.803018      2.10138
     0.811340      2.11436
     0.819701      2.12788
     0.828100      2.14229
     0.836538      2.15796
     0.845015      2.17506
     0.853532      2.19373
     0.862087      2.21382
     0.870682      2.23524
     0.879317      2.25767
     0.887991      2.28072
     0.896706      2.30403
     0.905461      2.32718
     0.914256      2.34988
     0.923092      2.37202
     0.931968      2.39377
     0.940886      2.41544
     0.949845      2.43751
     0.958845      2.46027
     0.967886      2.48393
     0.976970      2.50852
     0.986095      2.53394
     0.995262      2.55999
      1.00447      2.58665
      1.01372      2.61390
      1.02302      2.64173
      1.03236      2.67015
      1.04174      2.69920
      1.05116      2.72898
      1.06063      2.75962
      1.07014      2.79133
      1.07970      2.82413
      1.08930      2.85807
      1.09894      2.89316
      1.10863      2.92940
      1.11836      2.96678
      1.12814      3.00554
      1.13796      3.04579
      1.14783      3.08760
      1.15774      3.13087
      1.16770      3.17532
      1.17771      3.22052
      1.18776      3.26599
      1.19786      3.31117
      1.20800      3.35560
      1.21820      3.39903
      1.22844      3.44135
      1.23872      3.48267
      1.24905      3.52340
      1.25944      3.56404
      1.26986      3.60504
      1.28034      3.64681
      1.29087      3.68955
      1.30144      3.73330
      1.31206      3.77801
      1.32274      3.82352
      1.33346      3.86951
      1.34423      3.91571
      1.35505      3.96187
      1.36592      4.00782
      1.37684      4.05346
      1.38781      4.09869
      1.39883      4.14338
      1.40991      4.18743
      1.42103      4.23065
      1.43220      4.27292
      1.44343      4.31407
      1.45471      4.35393
      1.46604      4.39235
      1.47742      4.42929
      1.48886      4.46477
      1.50035      4.49882
      1.51189      4.53147
      1.52348      4.56273
      1.53513      4.59254
      1.54683      4.62085
      1.55859      4.64755
      1.57040      4.67253
      1.58226      4.69578
      1.59418      4.71724
      1.60615      4.73686
      1.61818      4.75458
      1.63027      4.77035
      1.64241      4.78410
      1.65461      4.79595
      1.66686      4.80611
      1.67917      4.81486
      1.69153      4.82253
      1.70396      4.82931
      1.71644      4.83535
      1.72898      4.84072
      1.74157      4.84547
      1.75423      4.84964
      1.76694      4.85334
      1.77971      4.85670
      1.79254      4.85985
      1.80543      4.86290
      1.81838      4.86595
      1.83139      4.86903
      1.84446      4.87217
      1.85759      4.87540
      1.87078      4.87874
      1.88403      4.88225
      1.89734      4.88603
      1.91072      4.89019
      1.92415      4.89479
      1.93765      4.89988
      1.95121      4.90547
      1.96483      4.91158
      1.97852      4.91824
      1.99226      4.92544
      2.00608      4.93315
      2.01995      4.94137
      2.03389      4.95007
      2.04789      4.95924
      2.06196      4.96887
      2.07610      4.97897
      2.09030      4.98950
      2.10456      5.00046
      2.11889      5.01185
      2.13329      5.02362
      2.14775      5.03574
      2.16228      5.04811
      2.17687      5.06065
      2.19154      5.07327
      2.20627      5.08593
      2.22107      5.09859
      2.23594      5.11122
      2.25087      5.12381
      2.26588      5.13633
      2.28095      5.14876
      2.29610      5.16108
      2.31131      5.17327
      2.32660      5.18530
      2.34195      5.19713
      2.35738      5.20875
      2.37287      5.22014
      2.38844      5.23129
      2.40408      5.24217
      2.41979      5.25279
      2.43558      5.26311
      2.45144      5.27314
      2.46737      5.28287
      2.48337      5.29228
      2.49945      5.30136
      2.51560      5.31011
      2.53183      5.31851
      2.54813      5.32655
      2.56451      5.33424
      2.58096      5.34155
      2.59749      5.34849
      2.61410      5.35504
      2.63078      5.36123
      2.64754      5.36706
      2.66438      5.37258
      2.68129      5.37783
      2.69828      5.38283
      2.71535      5.38760
      2.73250      5.39212
      2.74973      5.39635
      2.76704      5.40027
      2.78443      5.40383
      2.80189      5.40699
      2.81944      5.40979
      2.83707      5.41229
      2.85478      5.41463
      2.87258      5.41692
      2.89045      5.41927
      2.90841      5.42168
      2.92645      5.42422
      2.94457      5.42675
      2.96278      5.42900
      2.98107      5.43075
      2.99945      5.43191
      3.01791      5.43251
      3.03645      5.43267
      3.05509      5.43238
      3.07380      5.43140
      3.09261      5.42992
      3.11150      5.42820
      3.13048      5.42637
      3.14954      5.42433
      3.16869      5.42209
      3.18794      5.41946
      3.20727      5.41662
      3.22669      5.41391
      3.24620      5.41116
      3.26580      5.40811
      3.28549      5.40470
      3.30527      5.40109
      3.32514      5.39739
      3.34510      5.39391
      3.36516      5.39036
      3.38531      5.38662
      3.40555      5.38266
      3.42588      5.37878
      3.44631      5.37496
      3.46684      5.37146
      3.48745      5.36844
      3.50817      5.36608
      3.52898      5.36445
      3.54988      5.36347
      3.57088      5.36265
      3.59198      5.36163
      3.61318      5.36049
      3.63447      5.35913
      3.65586      5.35769
      3.67735      5.35604
      3.69894      5.35413
      3.72063      5.35175
      3.74242      5.34907
      3.76431      5.34599
      3.78630      5.34270
      3.80839      5.33928
      3.83059      5.33579
      3.85288      5.33197
      3.87529      5.32777
      3.89779      5.32325
      3.92039      5.31795
      3.94311      5.31217
      3.96592      5.30617
      3.98884      5.30051
      4.01187      5.29571
      4.03501      5.29191
      4.05825      5.28838
      4.08159      5.28516
      4.10505      5.28223
      4.12861      5.27960
      4.15229      5.27709
      4.17607      5.27467
      4.19996      5.27205
      4.22396      5.26912
      4.24808      5.26619
      4.27230      5.26336
      4.29663      5.26053
      4.32108      5.25795
      4.34564      5.25597
      4.37032      5.25442
      4.39511      5.25351
      4.42001      5.25300
      4.44503      5.25264
      4.47016      5.25210
      4.49541      5.25171
      4.52077      5.25152
      4.54626      5.25167
      4.57186      5.25223
      4.59758      5.25326
      4.62341      5.25417
      4.64937      5.25453
      4.67545      5.25389
      4.70164      5.25175
      4.72796      5.24838
      4.75440      5.24447
      4.78096      5.24101
      4.80764      5.23817
      4.83445      5.23618
      4.86138      5.23480
      4.88844      5.23449
      4.91562      5.23557
      4.94292      5.23879
      4.97035      5.24368
      4.99791      5.25006
      5.02560      5.25782
      5.05341      5.26703
      5.08135      5.27718
      5.10942      5.28791
      5.13762      5.29895
      5.16595      5.31027
      5.19441      5.32239
      5.22300      5.33547
      5.25173      5.34941
      5.28058      5.36351
      5.30957      5.37811
      5.33870      5.39270
      5.36796      5.40717
      5.39735      5.42156
      5.42688      5.43636
      5.45654      5.45141
      5.48634      5.46710
      5.51628      5.48345
      5.54636      5.50059
      5.57658      5.51858
      5.60693      5.53735
      5.63743      5.55638
      5.66807      5.57429
      5.69885      5.59111
      5.72977      5.60671
      5.76083      5.62158
      5.79204      5.63657
      5.82339      5.65249
      5.85488      5.66893
      5.88652      5.68576
      5.91831      5.70234
      5.95024      5.71827
      5.98232      5.73332
      6.01455      5.74754
      6.04693      5.76075
      6.07946      5.77264
      6.11213      5.78431
      6.14496      5.79713
      6.17794      5.81196
      6.21107      5.82882
      6.24436      5.84698
      6.27780      5.86535
      6.31139      5.88316
      6.34514      5.89968
      6.37904      5.91431
      6.41310      5.92651
      6.44732      5.93602
      6.48170      5.94258
      6.51623      5.94631
      6.55092      5.94739
      6.58578      5.94630
      6.62079      5.94364
      6.65597      5.94008
      6.69130      5.93599
      6.72681      5.93175
      6.76247      5.92752
      6.79830      5.92333
      6.83430      5.91917
      6.87046      5.91506
      6.90679      5.91094
      6.94328      5.90682
      6.97995      5.90276
      7.01678      5.89872
      7.05378      5.89469
      7.09096      5.89061
      7.12831      5.88647
      7.16582      5.88220
      7.20352      5.87786
      7.24138      5.87340
      7.27942      5.86889
      7.31764      5.86442
      7.35603      5.86008
      7.39460      5.85596
      7.43335      5.85204
      7.47227      5.84821
      7.51138      5.84443
      7.55067      5.84072
      7.59014      5.83705
      7.62979      5.83344
      7.66962      5.82984
      7.70964      5.82621
      7.74984      5.82251
      7.79023      5.81882
      7.83080      5.81514
      7.87156      5.81156
      7.91251      5.80814
      7.95365      5.80490
      7.99498      5.80174
      8.03649      5.79870
      8.07821      5.79575
      8.12011      5.79291
      8.16220      5.79025
      8.20450      5.78773
      8.24698      5.78526
      8.28966      5.78279
      8.33254      5.78036
      8.37562      5.77790
      8.41890      5.77549
      8.46237      5.77311
      8.50605      5.77072
      8.54993      5.76827
      8.59401      5.76586
      8.63829      5.76346
      8.68278      5.76103
      8.72747      5.75855
      8.77237      5.75598
      8.81748      5.75333
      8.86279      5.75079
      8.90832      5.74853
      8.95405      5.74656
      9.00000      5.74490
      9.04616      5.74345
      9.09253      5.74212
      9.13911      5.74087
      9.18591      5.73974
      9.23293      5.73870
      9.28016      5.73776
      9.32762      5.73683
      9.37529      5.73583
      9.42317      5.73467
      9.47128      5.73333
      9.51962      5.73183
      9.56818      5.73022
      9.61696      5.72858
      9.66596      5.72699
      9.71519      5.72547
      9.76465      5.72407
      9.81434      5.72281
      9.86426      5.72169
      9.91440      5.72069
      9.96478      5.71979
      10.0154      5.71899
      10.0662      5.71829
      10.1173      5.71771
      10.1686      5.71728
      10.2202      5.71690
      10.2720      5.71647
      10.3240      5.71597
      10.3763      5.71541
      10.4288      5.71482
      10.4815      5.71425
      10.5345      5.71379
      10.5878      5.71349
      10.6413      5.71344
      10.6950      5.71370
      10.7490      5.71419
      10.8032      5.71479
      10.8577      5.71551
      10.9124      5.71633
      10.9674      5.71726
      11.0226      5.71829
      11.0781      5.71940
      11.1339      5.72048
      11.1899      5.72148
      11.2462      5.72240
      11.3027      5.72321
      11.3595      5.72390
      11.4165      5.72450
      11.4738      5.72495
      11.5314      5.72523
      11.5893      5.72541
      11.6474      5.72555
      11.7057      5.72570
      11.7644      5.72599
      11.8233      5.72645
      11.8825      5.72710
      11.9420      5.72796
      12.0017      5.72908
      12.0617      5.73043
      12.1220      5.73199
      12.1826      5.73377
      12.2434      5.73569
      12.3045      5.73771
      12.3660      5.73984
      12.4277      5.74205
      12.4896      5.74428
      12.5519      5.74647
      12.6144      5.74850
      12.6773      5.75033
      12.7404      5.75208
      12.8038      5.75387
      12.8676      5.75575
      12.9316      5.75773
      12.9959      5.75979
      13.0605      5.76195
      13.1254      5.76420
      13.1906      5.76660
      13.2561      5.76918
      13.3219      5.77196
      13.3880      5.77493
      13.4544      5.77806
      13.5211      5.78128
      13.5881      5.78454
      13.6555      5.78780
      13.7231      5.79104
      13.7911      5.79429
      13.8594      5.79754
      13.9279      5.80084
      13.9968      5.80421
      14.0661      5.80769
      14.1356      5.81132
      14.2055      5.81514
      14.2757      5.81920
      14.3462      5.82352
      14.4170      5.82808
      14.4882      5.83285
      14.5597      5.83783
      14.6315      5.84297
      14.7036      5.84827
      14.7761      5.85370
      14.8489      5.85923
      14.9221      5.86481
      14.9956      5.87044
      15.0694      5.87609
      15.1436      5.88177
      15.2181      5.88752
      15.2930      5.89338
      15.3682      5.89934
      15.4437      5.90544
      15.5196      5.91168
      15.5959      5.91806
      15.6725      5.92460
      15.7494      5.93129
      15.8267      5.93812
      15.9044      5.94508
      15.9824      5.95215
      16.0608      5.95931
      16.1396      5.96652
      16.2187      5.97376
      16.2982      5.98099
      16.3780      5.98819
      16.4582      5.99535
      16.5388      6.00244
      16.6198      6.00943
      16.7011      6.01633
      16.7828      6.02313
      16.8649      6.02982
      16.9473      6.03645
      17.0302      6.04305
      17.1134      6.04970
      17.1970      6.05646
      17.2810      6.06336
      17.3654      6.07042
      17.4502      6.07763
      17.5353      6.08500
      17.6209      6.09248
      17.7068      6.10006
      17.7932      6.10773
      17.8799      6.11544
      17.9671      6.12317
      18.0546      6.13088
      18.1426      6.13854
      18.2309      6.14614
      18.3197      6.15366
      18.4089      6.16112
      18.4984      6.16855
      18.5884      6.17598
      18.6789      6.18341
      18.7697      6.19087
      18.8609      6.19835
      18.9526      6.20585
      19.0447      6.21341
      19.1372      6.22103
      19.2302      6.22874
      19.3236      6.23655
      19.4174      6.24446
      19.5116      6.25248
      19.6063      6.26063
      19.7014      6.26890
      19.7970      6.27732
      19.8930      6.28589
      19.9894      6.29462
      20.0863      6.30352
      20.1836      6.31259
      20.2814      6.32181
      20.3796      6.33118
      20.4783      6.34068
      20.5774      6.35032
      20.6770      6.36010
      20.7771      6.37002
      20.8776      6.38008
      20.9786      6.39028
      21.0800      6.40062
      21.1820      6.41111
      21.2844      6.42174
      21.3872      6.43251
      21.4905      6.44342
      21.5944      6.45448
      21.6986      6.46567
      21.8034      6.47699
      21.9087      6.48843
      22.0144      6.49999
      22.1206      6.51169
      22.2274      6.52355
      22.3346      6.53558
      22.4423      6.54778
      22.5505      6.56016
      22.6592      6.57270
      22.7684      6.58542
      22.8781      6.59829
      22.9883      6.61131
      23.0991      6.62446
      23.2103      6.63770
      23.3220      6.65103
      23.4343      6.66442
      23.5471      6.67785
      23.6604      6.69131
      23.7742      6.70480
      23.8886      6.71836
      24.0035      6.73204
      24.1189      6.74588
      24.2348      6.75989
      24.3513      6.77408
      24.4683      6.78842
      24.5859      6.80290
      24.7040      6.81749
      24.8226      6.83219
      24.9418      6.84701
      25.0615      6.86191
      25.1818      6.87689
      25.3027      6.89190
      25.4241      6.90692
      25.5461      6.92192
      25.6686      6.93692
      25.7917      6.95195
      25.9153      6.96705
      26.0396      6.98223
      26.1644      6.99750
      26.2898      7.01284
      26.4157      7.02828
      26.5423      7.04380
      26.6694      7.05941
      26.7971      7.07511
      26.9254      7.09091
      27.0543      7.10681
      27.1838      7.12283
      27.3139      7.13895
      27.4446      7.15519
      27.5759      7.17156
      27.7078      7.18804
      27.8403      7.20466
      27.9734      7.22140
